 Poloidal magnetic field
     8.70000        0.950944E-04    0.107764E-03
     8.70139        0.100616E-03    0.115781E-03
     8.70660        0.122023E-03    0.149618E-03
     8.71339        0.148571E-03    0.184372E-03
     8.71859        0.164904E-03    0.185824E-03
     8.71998        0.168334E-03    0.180481E-03
     8.72101        0.169388E-03    0.174315E-03
     8.72485        0.171669E-03    0.153005E-03
     8.72987        0.170666E-03    0.128776E-03
     8.73372        0.166822E-03    0.112163E-03
     8.73474        0.165348E-03    0.107935E-03
     8.73576        0.162932E-03    0.100916E-03
     8.73961        0.151891E-03    0.754382E-04
     8.74462        0.133308E-03    0.449326E-04
     8.74845        0.116335E-03    0.243043E-04
     8.74948        0.111469E-03    0.192858E-04
     8.75050        0.106213E-03    0.135465E-04
     8.75434        0.853753E-04   -0.636608E-05
     8.75934        0.563051E-04   -0.279342E-04
     8.76317        0.333010E-04   -0.405473E-04
     8.76419        0.271482E-04   -0.432747E-04
     8.76521        0.209681E-04   -0.458823E-04
     8.76904       -0.192741E-05   -0.532749E-04
     8.77404       -0.303234E-04   -0.571098E-04
     8.77787       -0.502087E-04   -0.554607E-04
     8.77889       -0.551484E-04   -0.543356E-04
     8.77991       -0.598376E-04   -0.528631E-04
     8.78373       -0.756813E-04   -0.448573E-04
     8.78872       -0.916196E-04   -0.288827E-04
     8.79254       -0.996378E-04   -0.127400E-04
     8.79356       -0.101098E-03   -0.790619E-05
     8.79458       -0.102117E-03   -0.279206E-05
     8.79840       -0.103129E-03    0.180528E-04
     8.80338       -0.976096E-04    0.484185E-04
     8.80719       -0.879579E-04    0.733792E-04
     8.80821       -0.845737E-04    0.801961E-04
     8.80923       -0.806930E-04    0.870645E-04
     8.81304       -0.630912E-04    0.112923E-03
     8.81801       -0.332575E-04    0.145983E-03
     8.82182       -0.544937E-05    0.169912E-03
     8.82284        0.264931E-05    0.175988E-03
     8.82385        0.111441E-04    0.181828E-03
     8.82766        0.452814E-04    0.202057E-03
     8.83263        0.944436E-04    0.223759E-03
     8.83643        0.134926E-03    0.236063E-03
     8.83744        0.146047E-03    0.238633E-03
     8.83846        0.157331E-03    0.240731E-03
     8.84226        0.200366E-03    0.245523E-03
     8.84722        0.257237E-03    0.244179E-03
     8.85102        0.300416E-03    0.236962E-03
     8.85203        0.311768E-03    0.234100E-03
     8.85304        0.322980E-03    0.230650E-03
     8.85684        0.363781E-03    0.214015E-03
     8.86179        0.413152E-03    0.183787E-03
     8.86558        0.447077E-03    0.154230E-03
     8.86659        0.455456E-03    0.145440E-03
     8.86760        0.463397E-03    0.136109E-03
     8.87139        0.490039E-03    0.978561E-04
     8.87634        0.516803E-03    0.410032E-04
     8.88013        0.530508E-03   -0.720200E-05
     8.88113        0.533111E-03   -0.206501E-04
     8.88214        0.535064E-03   -0.344190E-04
     8.88593        0.537984E-03   -0.877941E-04
     8.89087        0.531375E-03   -0.160411E-03
     8.89465        0.518155E-03   -0.217269E-03
     8.89565        0.513441E-03   -0.232485E-03
     8.89666        0.508024E-03   -0.247682E-03
     8.90044        0.483107E-03   -0.304174E-03
     8.90537        0.440328E-03   -0.375526E-03
     8.90915        0.400082E-03   -0.427231E-03
     8.91015        0.388329E-03   -0.440460E-03
     8.91116        0.375997E-03   -0.453300E-03
     8.91493        0.326102E-03   -0.498603E-03
     8.91986        0.253491E-03   -0.550071E-03
     8.92363        0.192986E-03   -0.582690E-03
     8.92463        0.176262E-03   -0.590297E-03
     8.92563        0.159237E-03   -0.597215E-03
     8.92940        0.936533E-04   -0.618433E-03
     8.93432        0.536520E-05   -0.634572E-03
     8.93808       -0.631731E-04   -0.637585E-03
     8.93909       -0.814297E-04   -0.636986E-03
     8.94009       -0.996163E-04   -0.635545E-03
     8.94385       -0.167071E-03   -0.624528E-03
     8.94876       -0.251958E-03   -0.597240E-03
     8.95252       -0.313374E-03   -0.566582E-03
     8.95352       -0.329077E-03   -0.557024E-03
     8.95452       -0.344329E-03   -0.546679E-03
     8.95828       -0.398300E-03   -0.502754E-03
     8.96318       -0.460110E-03   -0.434382E-03
     8.96693       -0.499933E-03   -0.374338E-03
     8.96793       -0.509349E-03   -0.357327E-03
     8.96893       -0.518026E-03   -0.339790E-03
     8.97268       -0.545528E-03   -0.270724E-03
     8.97758       -0.569153E-03   -0.174353E-03
     8.98133       -0.577452E-03   -0.970216E-04
     8.98232       -0.578202E-03   -0.760597E-04
     8.98332       -0.578092E-03   -0.549806E-04
     8.98707       -0.571953E-03    0.246242E-04
     8.99195       -0.550775E-03    0.128119E-03
     8.99570       -0.524678E-03    0.205643E-03
     8.99669       -0.516324E-03    0.225874E-03
     8.99769       -0.507187E-03    0.245761E-03
     9.00143       -0.467797E-03    0.317850E-03
     9.00631       -0.405313E-03    0.404577E-03
     9.01005       -0.349770E-03    0.464077E-03
     9.01104       -0.333956E-03    0.478773E-03
     9.01204       -0.317623E-03    0.492719E-03
     9.01577       -0.253070E-03    0.539900E-03
     9.02065       -0.162532E-03    0.588528E-03
     9.02438       -0.896062E-04    0.615065E-03
     9.02537       -0.698066E-04    0.620490E-03
     9.02637       -0.498855E-04    0.624926E-03
     9.03010        0.254398E-04    0.634963E-03
     9.03496        0.123569E-03    0.632506E-03
     9.03869        0.197214E-03    0.618671E-03
     9.03968        0.216450E-03    0.613249E-03
     9.04067        0.235369E-03    0.606842E-03
     9.04440        0.304054E-03    0.576351E-03
     9.04925        0.386964E-03    0.522226E-03
     9.05297        0.444128E-03    0.470537E-03
     9.05397        0.458298E-03    0.455372E-03
     9.05496        0.471781E-03    0.439476E-03
     9.05868        0.517684E-03    0.375147E-03
     9.06353        0.565776E-03    0.281691E-03
     9.06724        0.592835E-03    0.204201E-03
     9.06823        0.598541E-03    0.182862E-03
     9.06922        0.603342E-03    0.161239E-03
     9.07293        0.615314E-03    0.784204E-04
     9.07778        0.616649E-03   -0.317630E-04
     9.08149        0.606645E-03   -0.116070E-03
     9.08248        0.602371E-03   -0.138316E-03
     9.08346        0.597185E-03   -0.160310E-03
     9.08717        0.571721E-03   -0.240956E-03
     9.09201        0.525055E-03   -0.340024E-03
     9.09571        0.479649E-03   -0.409579E-03
     9.09670        0.466225E-03   -0.427001E-03
     9.09769        0.452105E-03   -0.443681E-03
     9.10139        0.394626E-03   -0.501179E-03
     9.10622        0.310342E-03   -0.563089E-03
     9.10992        0.239883E-03   -0.599411E-03
     9.11090        0.220397E-03   -0.607351E-03
     9.11189        0.200607E-03   -0.614237E-03
     9.11559        0.124471E-03   -0.633043E-03
     9.12041        0.223146E-04   -0.640785E-03
     9.12410       -0.565979E-04   -0.633638E-03
     9.12509       -0.775421E-04   -0.629807E-03
     9.12607       -0.983237E-04   -0.624878E-03
     9.12976       -0.175081E-03   -0.599184E-03
     9.13458       -0.270820E-03   -0.549435E-03
     9.13827       -0.339342E-03   -0.499602E-03
     9.13925       -0.356730E-03   -0.484701E-03
     9.14023       -0.373515E-03   -0.468942E-03
     9.14392       -0.432401E-03   -0.404302E-03
     9.14873       -0.498479E-03   -0.308548E-03
     9.15241       -0.539826E-03   -0.227939E-03
     9.15339       -0.549373E-03   -0.205580E-03
     9.15437       -0.558015E-03   -0.182835E-03
     9.15805       -0.584402E-03   -0.951965E-04
     9.16286       -0.604223E-03    0.225463E-04
     9.16653       -0.607883E-03    0.113436E-03
     9.16751       -0.607142E-03    0.137531E-03
     9.16849       -0.605415E-03    0.161419E-03
     9.17217       -0.592441E-03    0.249424E-03
     9.17696       -0.560693E-03    0.358490E-03
     9.18064       -0.525494E-03    0.435821E-03
     9.18162       -0.514589E-03    0.455308E-03
     9.18259       -0.502869E-03    0.474041E-03
     9.18627       -0.453584E-03    0.539144E-03
     9.19105       -0.377988E-03    0.610537E-03
     9.19472       -0.312597E-03    0.653624E-03
     9.19570       -0.294222E-03    0.663269E-03
     9.19668       -0.275416E-03    0.671805E-03
     9.20034       -0.202080E-03    0.696386E-03
     9.20512       -0.101537E-03    0.710522E-03
     9.20879       -0.223842E-04    0.707287E-03
     9.20976       -0.117228E-05    0.704337E-03
     9.21074        0.199784E-04    0.700200E-03
     9.21440        0.988075E-04    0.676865E-03
     9.21917        0.198664E-03    0.628683E-03
     9.22283        0.271232E-03    0.578881E-03
     9.22381        0.289802E-03    0.563815E-03
     9.22478        0.307812E-03    0.547795E-03
     9.22844        0.371605E-03    0.481565E-03
     9.23320        0.444572E-03    0.382338E-03
     9.23686        0.491377E-03    0.298067E-03
     9.23783        0.502376E-03    0.274595E-03
     9.23880        0.512445E-03    0.250663E-03
     9.24245        0.544124E-03    0.158108E-03
     9.24721        0.570503E-03    0.329509E-04
     9.25086        0.578782E-03   -0.642829E-04
     9.25183        0.579190E-03   -0.901493E-04
     9.25280        0.578552E-03   -0.115853E-03
     9.25645        0.569333E-03   -0.210942E-03
     9.26121        0.541573E-03   -0.329743E-03
     9.26485        0.508668E-03   -0.414790E-03
     9.26582        0.498250E-03   -0.436350E-03
     9.26679        0.486945E-03   -0.457164E-03
     9.27043        0.438776E-03   -0.530108E-03
     9.27518        0.363595E-03   -0.611625E-03
     9.27881        0.297775E-03   -0.662257E-03
     9.27978        0.279181E-03   -0.673859E-03
     9.28075        0.260106E-03   -0.684317E-03
     9.28439        0.185438E-03   -0.715899E-03
     9.28913        0.825270E-04   -0.738499E-03
     9.29276        0.122499E-05   -0.741146E-03
     9.29373       -0.205909E-04   -0.739657E-03
     9.29470       -0.423539E-04   -0.736918E-03
     9.29833       -0.123493E-03   -0.718454E-03
     9.30306       -0.226218E-03   -0.675650E-03
     9.30669       -0.300707E-03   -0.629193E-03
     9.30766       -0.319725E-03   -0.614895E-03
     9.30863       -0.338167E-03   -0.599577E-03
     9.31225       -0.403280E-03   -0.535562E-03
     9.31698       -0.477106E-03   -0.438198E-03
     9.32060       -0.523783E-03   -0.354592E-03
     9.32157       -0.534612E-03   -0.331184E-03
     9.32253       -0.544461E-03   -0.307261E-03
     9.32615       -0.574814E-03   -0.214360E-03
     9.33088       -0.598167E-03   -0.879141E-04
     9.33450       -0.603082E-03    0.108740E-04
     9.33546       -0.602428E-03    0.372273E-04
     9.33642       -0.600638E-03    0.634545E-04
     9.34004       -0.586538E-03    0.160736E-03
     9.34476       -0.551093E-03    0.282796E-03
     9.34837       -0.511344E-03    0.370519E-03
     9.34933       -0.498963E-03    0.392799E-03
     9.35029       -0.485606E-03    0.414334E-03
     9.35391       -0.429311E-03    0.489973E-03
     9.35862       -0.342629E-03    0.574805E-03
     9.36223       -0.267455E-03    0.627701E-03
     9.36319       -0.246303E-03    0.639845E-03
     9.36415       -0.224617E-03    0.650815E-03
     9.36776       -0.140049E-03    0.684083E-03
     9.37246       -0.241513E-04    0.708192E-03
     9.37606        0.669710E-04    0.711402E-03
     9.37702        0.913613E-04    0.709961E-03
     9.37798        0.115753E-03    0.707233E-03
     9.38159        0.206478E-03    0.688462E-03
     9.38628        0.320863E-03    0.644376E-03
     9.38988        0.403476E-03    0.596272E-03
     9.39084        0.424515E-03    0.581433E-03
     9.39180        0.445049E-03    0.565557E-03
     9.39540        0.517384E-03    0.499130E-03
     9.40009        0.598978E-03    0.397914E-03
     9.40369        0.650232E-03    0.310915E-03
     9.40464        0.662059E-03    0.286548E-03
     9.40560        0.672965E-03    0.261676E-03
     9.40919        0.706535E-03    0.165116E-03
     9.41388        0.732235E-03    0.338156E-04
     9.41747        0.737512E-03   -0.685865E-04
     9.41843        0.736735E-03   -0.958662E-04
     9.41938        0.734714E-03   -0.123007E-03
     9.42297        0.719116E-03   -0.223449E-03
     9.42765        0.680233E-03   -0.348800E-03
     9.43124        0.636800E-03   -0.438230E-03
     9.43219        0.623288E-03   -0.460820E-03
     9.43315        0.608590E-03   -0.482629E-03
     9.43673        0.546898E-03   -0.558706E-03
     9.44141        0.452410E-03   -0.642558E-03
     9.44499        0.370825E-03   -0.693405E-03
     9.44594        0.347917E-03   -0.704793E-03
     9.44690        0.324187E-03   -0.714936E-03
     9.45047        0.232046E-03   -0.744322E-03
     9.45514        0.106643E-03   -0.761465E-03
     9.45872        0.870407E-05   -0.757890E-03
     9.45967       -0.174138E-04   -0.754424E-03
     9.46063       -0.439981E-04   -0.749648E-03
     9.46420       -0.142474E-03   -0.722446E-03
     9.46886       -0.265668E-03   -0.665669E-03
     9.47244       -0.353871E-03   -0.606686E-03
     9.47339       -0.376208E-03   -0.588792E-03
     9.47434       -0.398280E-03   -0.569847E-03
     9.47791       -0.475821E-03   -0.491514E-03
     9.48257       -0.562745E-03   -0.374051E-03
     9.48614       -0.616870E-03   -0.274301E-03
     9.48709       -0.629269E-03   -0.246520E-03
     9.48804       -0.640642E-03   -0.218220E-03
     9.49160       -0.675433E-03   -0.108921E-03
     9.49626       -0.701440E-03    0.384206E-04
     9.49982       -0.705983E-03    0.152397E-03
     9.50077       -0.704866E-03    0.182620E-03
     9.50172       -0.702411E-03    0.212638E-03
     9.50528       -0.684558E-03    0.323257E-03
     9.50993       -0.641325E-03    0.460155E-03
     9.51349       -0.593600E-03    0.556897E-03
     9.51444       -0.578815E-03    0.581179E-03
     9.51538       -0.563043E-03    0.604493E-03
     9.51894       -0.496712E-03    0.685267E-03
     9.52358       -0.394927E-03    0.772847E-03
     9.52714       -0.307010E-03    0.824634E-03
     9.52809       -0.282333E-03    0.835975E-03
     9.52903       -0.258110E-03    0.845806E-03
     9.53259       -0.162674E-03    0.873046E-03
     9.53722       -0.297920E-04    0.885087E-03
     9.54077        0.760898E-04    0.875922E-03
     9.54172        0.104617E-03    0.870723E-03
     9.54267        0.130061E-03    0.863798E-03
     9.54622        0.225952E-03    0.827819E-03
     9.55085        0.349592E-03    0.758081E-03
     9.55439        0.440904E-03    0.688239E-03
     9.55534        0.464450E-03    0.667338E-03
     9.55628        0.485861E-03    0.645250E-03
     9.55983        0.560499E-03    0.554680E-03
     9.56445        0.642545E-03    0.420497E-03
     9.56800        0.692061E-03    0.307664E-03
     9.56894        0.703095E-03    0.276394E-03
     9.56989        0.712421E-03    0.244737E-03
     9.57343        0.738950E-03    0.122929E-03
     9.57805        0.752864E-03   -0.402182E-04
     9.58159        0.747257E-03   -0.165615E-03
     9.58253        0.743315E-03   -0.198741E-03
     9.58347        0.737442E-03   -0.231349E-03
     9.58701        0.706569E-03   -0.351070E-03
     9.59163        0.646105E-03   -0.498158E-03
     9.59516        0.585237E-03   -0.601229E-03
     9.59610        0.566985E-03   -0.626952E-03
     9.59705        0.546957E-03   -0.651473E-03
     9.60058        0.465038E-03   -0.735596E-03
     9.60519        0.344115E-03   -0.824663E-03
     9.60872        0.242750E-03   -0.875363E-03
     9.60966        0.214704E-03   -0.886079E-03
     9.61060        0.186142E-03   -0.895499E-03
     9.61413        0.755298E-04   -0.919607E-03
     9.61874       -0.742120E-04   -0.923886E-03
     9.62227       -0.190462E-03   -0.906108E-03
     9.62321       -0.221339E-03   -0.898237E-03
     9.62415       -0.249871E-03   -0.890150E-03
     9.62767       -0.356162E-03   -0.847597E-03
     9.63227       -0.490275E-03   -0.764253E-03
     9.63580       -0.587013E-03   -0.680401E-03
     9.63674       -0.611591E-03   -0.655271E-03
     9.63768       -0.632498E-03   -0.631167E-03
     9.64120       -0.705604E-03   -0.531599E-03
     9.64579       -0.786372E-03   -0.382577E-03
     9.64932       -0.835408E-03   -0.256313E-03
     9.65025       -0.846373E-03   -0.221200E-03
     9.65119       -0.853666E-03   -0.186990E-03
     9.65471       -0.872123E-03   -0.561324E-04
     9.65930       -0.874460E-03    0.117301E-03
     9.66282       -0.859257E-03    0.249178E-03
     9.66376       -0.852655E-03    0.283793E-03
     9.66469       -0.843120E-03    0.319481E-03
     9.66821       -0.797805E-03    0.447882E-03
     9.67279       -0.717049E-03    0.599284E-03
     9.67631       -0.639783E-03    0.700184E-03
     9.67724       -0.617066E-03    0.724506E-03
     9.67818       -0.592479E-03    0.749454E-03
     9.68169       -0.493850E-03    0.834074E-03
     9.68627       -0.352447E-03    0.921177E-03
     9.68978       -0.236799E-03    0.968459E-03
     9.69072       -0.205200E-03    0.977986E-03
     9.69166       -0.170176E-03    0.983657E-03
     9.69516       -0.394196E-04    0.995560E-03
     9.69974        0.126408E-03    0.988588E-03
     9.70325        0.246755E-03    0.966080E-03
     9.70418        0.277466E-03    0.957547E-03
     9.70512        0.313242E-03    0.942279E-03
     9.70862        0.439643E-03    0.877739E-03
     9.71320        0.582960E-03    0.777760E-03
     9.71670        0.673511E-03    0.690713E-03
     9.71763        0.694473E-03    0.666166E-03
     9.71857        0.720442E-03    0.634441E-03
     9.72207        0.806367E-03    0.509999E-03
     9.72664        0.889120E-03    0.337701E-03
     9.73014        0.928367E-03    0.200983E-03
     9.73107        0.935059E-03    0.164209E-03
     9.73200        0.941076E-03    0.127576E-03
     9.73550        0.953710E-03   -0.141581E-04
     9.74007        0.946352E-03   -0.205642E-03
     9.74356        0.922522E-03   -0.353959E-03
     9.74450        0.913489E-03   -0.393290E-03
     9.74543        0.899558E-03   -0.427026E-03
     9.74892        0.838110E-03   -0.551644E-03
     9.75348        0.737614E-03   -0.706172E-03
     9.75698        0.646700E-03   -0.815345E-03
     9.75791        0.620616E-03   -0.842689E-03
     9.75884        0.591731E-03   -0.867832E-03
     9.76233        0.476940E-03   -0.951228E-03
     9.76689        0.314777E-03   -0.103199E-02
     9.77038        0.183873E-03   -0.107074E-02
     9.77131        0.148355E-03   -0.107745E-02
     9.77224        0.111569E-03   -0.108351E-02
     9.77573       -0.281389E-04   -0.109251E-02
     9.78028       -0.210950E-03   -0.107141E-02
     9.78377       -0.348163E-03   -0.103026E-02
     9.78470       -0.383900E-03   -0.101562E-02
     9.78563       -0.417595E-03   -0.100039E-02
     9.78912       -0.540832E-03   -0.930706E-03
     9.79367       -0.690937E-03   -0.811790E-03
     9.79715       -0.795000E-03   -0.701177E-03
     9.79808       -0.820764E-03   -0.669059E-03
     9.79901       -0.842831E-03   -0.636046E-03
     9.80249       -0.916809E-03   -0.504685E-03
     9.80704       -0.990523E-03   -0.318693E-03
     9.81052       -0.102807E-02   -0.168204E-03
     9.81145       -0.103510E-02   -0.127317E-03
     9.81237       -0.103835E-02   -0.856135E-04
     9.81586       -0.103968E-02    0.714743E-04
     9.82040       -0.101547E-02    0.274071E-03
     9.82388       -0.977330E-03    0.423905E-03
     9.82480       -0.964296E-03    0.462591E-03
     9.82573       -0.945592E-03    0.501563E-03
     9.82921       -0.867805E-03    0.640886E-03
     9.83375       -0.750022E-03    0.802898E-03
     9.83723       -0.649275E-03    0.908929E-03
     9.83815       -0.621108E-03    0.934140E-03
     9.83908       -0.587272E-03    0.959077E-03
